Theta [deg.]  Phi   [deg.]  Abs(Dir.)[dBi   ]   Abs(Theta)[dBi   ]  Phase(Theta)[deg.]  Abs(Phi  )[dBi   ]  Phase(Phi  )[deg.]  Ax.Ratio[dB    ]    
------------------------------------------------------------------------------------------------------------------------------------------------------
   0.000          90.000           -1.241e+02          -1.264e+02              95.696          -1.280e+02             276.054           4.000e+01     
   1.000          90.000           -3.336e+01          -3.336e+01             293.630          -1.278e+02             278.202           4.000e+01     
   2.000          90.000           -2.734e+01          -2.734e+01             293.630          -1.276e+02             280.250           4.000e+01     
   3.000          90.000           -2.382e+01          -2.382e+01             293.630          -1.274e+02             282.204           4.000e+01     
   4.000          90.000           -2.132e+01          -2.132e+01             293.630          -1.272e+02             284.069           4.000e+01     
   5.000          90.000           -1.939e+01          -1.939e+01             293.630          -1.270e+02             285.849           4.000e+01     
   6.000          90.000           -1.781e+01          -1.781e+01             293.630          -1.268e+02             287.550           4.000e+01     
   7.000          90.000           -1.647e+01          -1.647e+01             293.630          -1.266e+02             289.175           4.000e+01     
   8.000          90.000           -1.532e+01          -1.532e+01             293.630          -1.265e+02             290.729           4.000e+01     
   9.000          90.000           -1.431e+01          -1.431e+01             293.630          -1.263e+02             292.217           4.000e+01     
  10.000          90.000           -1.340e+01          -1.340e+01             293.630          -1.261e+02             293.643           4.000e+01     
  11.000          90.000           -1.258e+01          -1.258e+01             293.630          -1.259e+02             295.011           4.000e+01     
  12.000          90.000           -1.183e+01          -1.183e+01             293.630          -1.257e+02             296.325           4.000e+01     
  13.000          90.000           -1.115e+01          -1.115e+01             293.630          -1.256e+02             297.588           4.000e+01     
  14.000          90.000           -1.052e+01          -1.052e+01             293.630          -1.254e+02             298.804           4.000e+01     
  15.000          90.000           -9.932e+00          -9.932e+00             293.630          -1.253e+02             299.975           4.000e+01     
  16.000          90.000           -9.385e+00          -9.385e+00             293.630          -1.251e+02             301.106           4.000e+01     
  17.000          90.000           -8.873e+00          -8.873e+00             293.630          -1.250e+02             302.198           4.000e+01     
  18.000          90.000           -8.392e+00          -8.392e+00             293.630          -1.248e+02             303.255           4.000e+01     
  19.000          90.000           -7.938e+00          -7.938e+00             293.630          -1.247e+02             304.278           4.000e+01     
  20.000          90.000           -7.510e+00          -7.510e+00             293.630          -1.245e+02             305.270           4.000e+01     
  21.000          90.000           -7.104e+00          -7.104e+00             293.630          -1.244e+02             306.233           4.000e+01     
  22.000          90.000           -6.719e+00          -6.719e+00             293.630          -1.243e+02             307.169           4.000e+01     
  23.000          90.000           -6.353e+00          -6.353e+00             293.630          -1.241e+02             308.080           4.000e+01     
  24.000          90.000           -6.004e+00          -6.004e+00             293.630          -1.240e+02             308.968           4.000e+01     
  25.000          90.000           -5.671e+00          -5.671e+00             293.630          -1.239e+02             309.834           4.000e+01     
  26.000          90.000           -5.353e+00          -5.353e+00             293.630          -1.238e+02             310.679           4.000e+01     
  27.000          90.000           -5.049e+00          -5.049e+00             293.630          -1.237e+02             311.506           4.000e+01     
  28.000          90.000           -4.757e+00          -4.757e+00             293.630          -1.236e+02             312.315           4.000e+01     
  29.000          90.000           -4.478e+00          -4.478e+00             293.630          -1.235e+02             313.108           4.000e+01     
  30.000          90.000           -4.210e+00          -4.210e+00             293.630          -1.234e+02             313.886           4.000e+01     
  31.000          90.000           -3.952e+00          -3.952e+00             293.630          -1.233e+02             314.650           4.000e+01     
  32.000          90.000           -3.704e+00          -3.704e+00             293.630          -1.232e+02             315.401           4.000e+01     
  33.000          90.000           -3.466e+00          -3.466e+00             293.630          -1.231e+02             316.141           4.000e+01     
  34.000          90.000           -3.237e+00          -3.237e+00             293.630          -1.230e+02             316.869           4.000e+01     
  35.000          90.000           -3.016e+00          -3.016e+00             293.630          -1.230e+02             317.587           4.000e+01     
  36.000          90.000           -2.803e+00          -2.803e+00             293.630          -1.229e+02             318.297           4.000e+01     
  37.000          90.000           -2.598e+00          -2.598e+00             293.630          -1.228e+02             318.997           4.000e+01     
  38.000          90.000           -2.400e+00          -2.400e+00             293.630          -1.227e+02             319.691           4.000e+01     
  39.000          90.000           -2.210e+00          -2.210e+00             293.630          -1.227e+02             320.377           4.000e+01     
  40.000          90.000           -2.025e+00          -2.025e+00             293.630          -1.226e+02             321.057           4.000e+01     
  41.000          90.000           -1.848e+00          -1.848e+00             293.630          -1.226e+02             321.732           4.000e+01     
  42.000          90.000           -1.676e+00          -1.676e+00             293.630          -1.225e+02             322.402           4.000e+01     
  43.000          90.000           -1.510e+00          -1.510e+00             293.630          -1.224e+02             323.068           4.000e+01     
  44.000          90.000           -1.350e+00          -1.350e+00             293.630          -1.224e+02             323.730           4.000e+01     
  45.000          90.000           -1.196e+00          -1.196e+00             293.630          -1.224e+02             324.390           4.000e+01     
  46.000          90.000           -1.047e+00          -1.047e+00             293.630          -1.223e+02             325.047           4.000e+01     
  47.000          90.000           -9.025e-01          -9.025e-01             293.630          -1.223e+02             325.702           4.000e+01     
  48.000          90.000           -7.633e-01          -7.633e-01             293.630          -1.222e+02             326.356           4.000e+01     
  49.000          90.000           -6.289e-01          -6.289e-01             293.630          -1.222e+02             327.010           4.000e+01     
  50.000          90.000           -4.992e-01          -4.992e-01             293.630          -1.222e+02             327.663           4.000e+01     
  51.000          90.000           -3.740e-01          -3.740e-01             293.630          -1.221e+02             328.317           4.000e+01     
  52.000          90.000           -2.531e-01          -2.531e-01             293.630          -1.221e+02             328.972           4.000e+01     
  53.000          90.000           -1.366e-01          -1.366e-01             293.630          -1.221e+02             329.628           4.000e+01     
  54.000          90.000           -2.413e-02          -2.413e-02             293.630          -1.221e+02             330.286           4.000e+01     
  55.000          90.000            8.424e-02           8.424e-02             293.629          -1.221e+02             330.946           4.000e+01     
  56.000          90.000            1.887e-01           1.887e-01             293.629          -1.221e+02             331.610           4.000e+01     
  57.000          90.000            2.893e-01           2.893e-01             293.629          -1.220e+02             332.277           4.000e+01     
  58.000          90.000            3.861e-01           3.861e-01             293.629          -1.220e+02             332.948           4.000e+01     
  59.000          90.000            4.792e-01           4.792e-01             293.629          -1.220e+02             333.623           4.000e+01     
  60.000          90.000            5.687e-01           5.687e-01             293.629          -1.220e+02             334.303           4.000e+01     
  61.000          90.000            6.547e-01           6.547e-01             293.629          -1.220e+02             334.989           4.000e+01     
  62.000          90.000            7.372e-01           7.372e-01             293.629          -1.220e+02             335.681           4.000e+01     
  63.000          90.000            8.163e-01           8.163e-01             293.629          -1.220e+02             336.380           4.000e+01     
  64.000          90.000            8.921e-01           8.921e-01             293.629          -1.221e+02             337.085           4.000e+01     
  65.000          90.000            9.646e-01           9.646e-01             293.629          -1.221e+02             337.798           4.000e+01     
  66.000          90.000            1.034e+00           1.034e+00             293.629          -1.221e+02             338.519           4.000e+01     
  67.000          90.000            1.100e+00           1.100e+00             293.629          -1.221e+02             339.249           4.000e+01     
  68.000          90.000            1.163e+00           1.163e+00             293.629          -1.221e+02             339.989           4.000e+01     
  69.000          90.000            1.223e+00           1.223e+00             293.629          -1.221e+02             340.737           4.000e+01     
  70.000          90.000            1.280e+00           1.280e+00             293.629          -1.222e+02             341.497           4.000e+01     
  71.000          90.000            1.334e+00           1.334e+00             293.629          -1.222e+02             342.267           4.000e+01     
  72.000          90.000            1.384e+00           1.384e+00             293.629          -1.222e+02             343.049           4.000e+01     
  73.000          90.000            1.432e+00           1.432e+00             293.629          -1.222e+02             343.843           4.000e+01     
  74.000          90.000            1.477e+00           1.477e+00             293.629          -1.223e+02             344.650           4.000e+01     
  75.000          90.000            1.520e+00           1.520e+00             293.629          -1.223e+02             345.470           4.000e+01     
  76.000          90.000            1.559e+00           1.559e+00             293.629          -1.223e+02             346.304           4.000e+01     
  77.000          90.000            1.595e+00           1.595e+00             293.629          -1.224e+02             347.153           4.000e+01     
  78.000          90.000            1.629e+00           1.629e+00             293.629          -1.224e+02             348.018           4.000e+01     
  79.000          90.000            1.660e+00           1.660e+00             293.629          -1.224e+02             348.898           4.000e+01     
  80.000          90.000            1.688e+00           1.688e+00             293.629          -1.225e+02             349.795           4.000e+01     
  81.000          90.000            1.714e+00           1.714e+00             293.629          -1.225e+02             350.709           4.000e+01     
  82.000          90.000            1.736e+00           1.736e+00             293.629          -1.226e+02             351.641           4.000e+01     
  83.000          90.000            1.757e+00           1.757e+00             293.629          -1.226e+02             352.592           4.000e+01     
  84.000          90.000            1.774e+00           1.774e+00             293.629          -1.227e+02             353.563           4.000e+01     
  85.000          90.000            1.788e+00           1.788e+00             293.629          -1.227e+02             354.553           4.000e+01     
  86.000          90.000            1.800e+00           1.800e+00             293.629          -1.228e+02             355.564           4.000e+01     
  87.000          90.000            1.810e+00           1.810e+00             293.629          -1.228e+02             356.597           4.000e+01     
  88.000          90.000            1.816e+00           1.816e+00             293.629          -1.229e+02             357.652           4.000e+01     
  89.000          90.000            1.820e+00           1.820e+00             293.629          -1.229e+02             358.730           4.000e+01     
  90.000          90.000            1.822e+00           1.822e+00             293.629          -1.230e+02             359.830           4.000e+01     
  91.000          90.000            1.820e+00           1.820e+00             293.629          -1.230e+02               0.955           4.000e+01     
  92.000          90.000            1.816e+00           1.816e+00             293.629          -1.231e+02               2.105           4.000e+01     
  93.000          90.000            1.810e+00           1.810e+00             293.629          -1.232e+02               3.280           4.000e+01     
  94.000          90.000            1.800e+00           1.800e+00             293.629          -1.232e+02               4.480           4.000e+01     
  95.000          90.000            1.788e+00           1.788e+00             293.629          -1.233e+02               5.707           4.000e+01     
  96.000          90.000            1.774e+00           1.774e+00             293.629          -1.233e+02               6.960           4.000e+01     
  97.000          90.000            1.757e+00           1.757e+00             293.629          -1.234e+02               8.240           4.000e+01     
  98.000          90.000            1.736e+00           1.736e+00             293.629          -1.234e+02               9.547           4.000e+01     
  99.000          90.000            1.714e+00           1.714e+00             293.629          -1.235e+02              10.881           4.000e+01     
 100.000          90.000            1.688e+00           1.688e+00             293.629          -1.235e+02              12.243           4.000e+01     
 101.000          90.000            1.660e+00           1.660e+00             293.629          -1.236e+02              13.632           4.000e+01     
 102.000          90.000            1.629e+00           1.629e+00             293.629          -1.236e+02              15.048           4.000e+01     
 103.000          90.000            1.595e+00           1.595e+00             293.629          -1.237e+02              16.492           4.000e+01     
 104.000          90.000            1.559e+00           1.559e+00             293.629          -1.237e+02              17.962           4.000e+01     
 105.000          90.000            1.520e+00           1.520e+00             293.629          -1.237e+02              19.457           4.000e+01     
 106.000          90.000            1.477e+00           1.477e+00             293.629          -1.238e+02              20.979           4.000e+01     
 107.000          90.000            1.432e+00           1.432e+00             293.629          -1.238e+02              22.524           4.000e+01     
 108.000          90.000            1.384e+00           1.384e+00             293.629          -1.238e+02              24.094           4.000e+01     
 109.000          90.000            1.334e+00           1.334e+00             293.629          -1.239e+02              25.685           4.000e+01     
 110.000          90.000            1.280e+00           1.280e+00             293.629          -1.239e+02              27.298           4.000e+01     
 111.000          90.000            1.223e+00           1.223e+00             293.629          -1.239e+02              28.931           4.000e+01     
 112.000          90.000            1.163e+00           1.163e+00             293.629          -1.239e+02              30.581           4.000e+01     
 113.000          90.000            1.100e+00           1.100e+00             293.629          -1.239e+02              32.248           4.000e+01     
 114.000          90.000            1.034e+00           1.034e+00             293.629          -1.239e+02              33.929           4.000e+01     
 115.000          90.000            9.646e-01           9.646e-01             293.629          -1.239e+02              35.622           4.000e+01     
 116.000          90.000            8.921e-01           8.921e-01             293.629          -1.239e+02              37.325           4.000e+01     
 117.000          90.000            8.163e-01           8.163e-01             293.629          -1.239e+02              39.036           4.000e+01     
 118.000          90.000            7.372e-01           7.372e-01             293.629          -1.239e+02              40.753           4.000e+01     
 119.000          90.000            6.547e-01           6.547e-01             293.629          -1.238e+02              42.472           4.000e+01     
 120.000          90.000            5.687e-01           5.687e-01             293.629          -1.238e+02              44.193           4.000e+01     
 121.000          90.000            4.792e-01           4.792e-01             293.629          -1.238e+02              45.911           4.000e+01     
 122.000          90.000            3.861e-01           3.861e-01             293.629          -1.237e+02              47.626           4.000e+01     
 123.000          90.000            2.892e-01           2.892e-01             293.629          -1.237e+02              49.333           4.000e+01     
 124.000          90.000            1.887e-01           1.887e-01             293.629          -1.236e+02              51.032           4.000e+01     
 125.000          90.000            8.424e-02           8.424e-02             293.629          -1.236e+02              52.719           4.000e+01     
 126.000          90.000           -2.413e-02          -2.413e-02             293.629          -1.235e+02              54.393           4.000e+01     
 127.000          90.000           -1.366e-01          -1.366e-01             293.629          -1.234e+02              56.051           4.000e+01     
 128.000          90.000           -2.531e-01          -2.531e-01             293.629          -1.233e+02              57.692           4.000e+01     
 129.000          90.000           -3.740e-01          -3.740e-01             293.629          -1.233e+02              59.314           4.000e+01     
 130.000          90.000           -4.992e-01          -4.992e-01             293.629          -1.232e+02              60.914           4.000e+01     
 131.000          90.000           -6.289e-01          -6.289e-01             293.629          -1.231e+02              62.492           4.000e+01     
 132.000          90.000           -7.633e-01          -7.633e-01             293.629          -1.230e+02              64.047           4.000e+01     
 133.000          90.000           -9.025e-01          -9.025e-01             293.629          -1.229e+02              65.576           4.000e+01     
 134.000          90.000           -1.047e+00          -1.047e+00             293.629          -1.228e+02              67.079           4.000e+01     
 135.000          90.000           -1.196e+00          -1.196e+00             293.629          -1.227e+02              68.555           4.000e+01     
 136.000          90.000           -1.350e+00          -1.350e+00             293.629          -1.226e+02              70.004           4.000e+01     
 137.000          90.000           -1.510e+00          -1.510e+00             293.629          -1.225e+02              71.424           4.000e+01     
 138.000          90.000           -1.676e+00          -1.676e+00             293.629          -1.224e+02              72.816           4.000e+01     
 139.000          90.000           -1.848e+00          -1.848e+00             293.629          -1.222e+02              74.179           4.000e+01     
 140.000          90.000           -2.025e+00          -2.025e+00             293.629          -1.221e+02              75.513           4.000e+01     
 141.000          90.000           -2.210e+00          -2.210e+00             293.629          -1.220e+02              76.817           4.000e+01     
 142.000          90.000           -2.400e+00          -2.400e+00             293.629          -1.219e+02              78.092           4.000e+01     
 143.000          90.000           -2.598e+00          -2.598e+00             293.629          -1.218e+02              79.339           4.000e+01     
 144.000          90.000           -2.803e+00          -2.803e+00             293.629          -1.216e+02              80.556           4.000e+01     
 145.000          90.000           -3.016e+00          -3.016e+00             293.629          -1.215e+02              81.746           4.000e+01     
 146.000          90.000           -3.237e+00          -3.237e+00             293.629          -1.214e+02              82.907           4.000e+01     
 147.000          90.000           -3.466e+00          -3.466e+00             293.629          -1.213e+02              84.040           4.000e+01     
 148.000          90.000           -3.705e+00          -3.705e+00             293.629          -1.211e+02              85.146           4.000e+01     
 149.000          90.000           -3.952e+00          -3.952e+00             293.629          -1.210e+02              86.225           4.000e+01     
 150.000          90.000           -4.210e+00          -4.210e+00             293.629          -1.209e+02              87.278           4.000e+01     
 151.000          90.000           -4.478e+00          -4.478e+00             293.629          -1.208e+02              88.306           4.000e+01     
 152.000          90.000           -4.757e+00          -4.757e+00             293.629          -1.207e+02              89.308           4.000e+01     
 153.000          90.000           -5.049e+00          -5.049e+00             293.629          -1.205e+02              90.286           4.000e+01     
 154.000          90.000           -5.353e+00          -5.353e+00             293.629          -1.204e+02              91.241           4.000e+01     
 155.000          90.000           -5.671e+00          -5.671e+00             293.629          -1.203e+02              92.172           4.000e+01     
 156.000          90.000           -6.004e+00          -6.004e+00             293.629          -1.202e+02              93.081           4.000e+01     
 157.000          90.000           -6.353e+00          -6.353e+00             293.629          -1.200e+02              93.967           4.000e+01     
 158.000          90.000           -6.719e+00          -6.719e+00             293.629          -1.199e+02              94.833           4.000e+01     
 159.000          90.000           -7.104e+00          -7.104e+00             293.629          -1.198e+02              95.678           4.000e+01     
 160.000          90.000           -7.510e+00          -7.510e+00             293.629          -1.197e+02              96.503           4.000e+01     
 161.000          90.000           -7.938e+00          -7.938e+00             293.629          -1.196e+02              97.309           4.000e+01     
 162.000          90.000           -8.392e+00          -8.392e+00             293.629          -1.195e+02              98.096           4.000e+01     
 163.000          90.000           -8.873e+00          -8.873e+00             293.629          -1.193e+02              98.865           4.000e+01     
 164.000          90.000           -9.385e+00          -9.385e+00             293.629          -1.192e+02              99.616           4.000e+01     
 165.000          90.000           -9.932e+00          -9.932e+00             293.629          -1.191e+02             100.350           4.000e+01     
 166.000          90.000           -1.052e+01          -1.052e+01             293.629          -1.190e+02             101.068           4.000e+01     
 167.000          90.000           -1.115e+01          -1.115e+01             293.629          -1.189e+02             101.770           4.000e+01     
 168.000          90.000           -1.183e+01          -1.183e+01             293.629          -1.188e+02             102.457           4.000e+01     
 169.000          90.000           -1.258e+01          -1.258e+01             293.629          -1.187e+02             103.129           4.000e+01     
 170.000          90.000           -1.340e+01          -1.340e+01             293.629          -1.186e+02             103.787           4.000e+01     
 171.000          90.000           -1.431e+01          -1.431e+01             293.629          -1.185e+02             104.431           4.000e+01     
 172.000          90.000           -1.532e+01          -1.532e+01             293.629          -1.184e+02             105.062           4.000e+01     
 173.000          90.000           -1.647e+01          -1.647e+01             293.629          -1.183e+02             105.679           4.000e+01     
 174.000          90.000           -1.781e+01          -1.781e+01             293.629          -1.182e+02             106.285           4.000e+01     
 175.000          90.000           -1.939e+01          -1.939e+01             293.629          -1.181e+02             106.878           4.000e+01     
 176.000          90.000           -2.132e+01          -2.132e+01             293.629          -1.180e+02             107.460           4.000e+01     
 177.000          90.000           -2.382e+01          -2.382e+01             293.629          -1.179e+02             108.031           4.000e+01     
 178.000          90.000           -2.734e+01          -2.734e+01             293.629          -1.178e+02             108.591           4.000e+01     
 179.000          90.000           -3.336e+01          -3.336e+01             293.629          -1.177e+02             109.140           4.000e+01     
 180.000          90.000           -1.158e+02          -1.204e+02             127.873          -1.177e+02             109.680           1.636e+01     
 179.000         270.000           -3.336e+01          -3.336e+01             293.630          -1.176e+02             290.210           4.000e+01     
 178.000         270.000           -2.734e+01          -2.734e+01             293.630          -1.175e+02             290.731           4.000e+01     
 177.000         270.000           -2.382e+01          -2.382e+01             293.630          -1.174e+02             291.242           4.000e+01     
 176.000         270.000           -2.132e+01          -2.132e+01             293.630          -1.173e+02             291.745           4.000e+01     
 175.000         270.000           -1.939e+01          -1.939e+01             293.630          -1.173e+02             292.240           4.000e+01     
 174.000         270.000           -1.781e+01          -1.781e+01             293.630          -1.172e+02             292.727           4.000e+01     
 173.000         270.000           -1.647e+01          -1.647e+01             293.630          -1.171e+02             293.206           4.000e+01     
 172.000         270.000           -1.532e+01          -1.532e+01             293.630          -1.170e+02             293.677           4.000e+01     
 171.000         270.000           -1.431e+01          -1.431e+01             293.630          -1.170e+02             294.141           4.000e+01     
 170.000         270.000           -1.340e+01          -1.340e+01             293.630          -1.169e+02             294.599           4.000e+01     
 169.000         270.000           -1.258e+01          -1.258e+01             293.630          -1.168e+02             295.049           4.000e+01     
 168.000         270.000           -1.183e+01          -1.183e+01             293.630          -1.168e+02             295.493           4.000e+01     
 167.000         270.000           -1.115e+01          -1.115e+01             293.630          -1.167e+02             295.931           4.000e+01     
 166.000         270.000           -1.052e+01          -1.052e+01             293.630          -1.166e+02             296.364           4.000e+01     
 165.000         270.000           -9.932e+00          -9.932e+00             293.630          -1.166e+02             296.790           4.000e+01     
 164.000         270.000           -9.385e+00          -9.385e+00             293.630          -1.165e+02             297.211           4.000e+01     
 163.000         270.000           -8.873e+00          -8.873e+00             293.630          -1.165e+02             297.626           4.000e+01     
 162.000         270.000           -8.392e+00          -8.392e+00             293.630          -1.164e+02             298.036           4.000e+01     
 161.000         270.000           -7.938e+00          -7.938e+00             293.630          -1.164e+02             298.442           4.000e+01     
 160.000         270.000           -7.510e+00          -7.510e+00             293.630          -1.163e+02             298.843           4.000e+01     
 159.000         270.000           -7.104e+00          -7.104e+00             293.630          -1.163e+02             299.239           4.000e+01     
 158.000         270.000           -6.719e+00          -6.719e+00             293.630          -1.162e+02             299.631           4.000e+01     
 157.000         270.000           -6.353e+00          -6.353e+00             293.630          -1.162e+02             300.018           4.000e+01     
 156.000         270.000           -6.004e+00          -6.004e+00             293.630          -1.161e+02             300.402           4.000e+01     
 155.000         270.000           -5.671e+00          -5.671e+00             293.630          -1.161e+02             300.782           4.000e+01     
 154.000         270.000           -5.353e+00          -5.353e+00             293.630          -1.160e+02             301.158           4.000e+01     
 153.000         270.000           -5.049e+00          -5.049e+00             293.630          -1.160e+02             301.530           4.000e+01     
 152.000         270.000           -4.757e+00          -4.757e+00             293.630          -1.160e+02             301.899           4.000e+01     
 151.000         270.000           -4.478e+00          -4.478e+00             293.630          -1.159e+02             302.265           4.000e+01     
 150.000         270.000           -4.210e+00          -4.210e+00             293.630          -1.159e+02             302.628           4.000e+01     
 149.000         270.000           -3.952e+00          -3.952e+00             293.630          -1.159e+02             302.987           4.000e+01     
 148.000         270.000           -3.704e+00          -3.704e+00             293.630          -1.158e+02             303.344           4.000e+01     
 147.000         270.000           -3.466e+00          -3.466e+00             293.630          -1.158e+02             303.699           4.000e+01     
 146.000         270.000           -3.237e+00          -3.237e+00             293.630          -1.158e+02             304.050           4.000e+01     
 145.000         270.000           -3.016e+00          -3.016e+00             293.630          -1.158e+02             304.399           4.000e+01     
 144.000         270.000           -2.803e+00          -2.803e+00             293.630          -1.157e+02             304.746           4.000e+01     
 143.000         270.000           -2.598e+00          -2.598e+00             293.630          -1.157e+02             305.091           4.000e+01     
 142.000         270.000           -2.400e+00          -2.400e+00             293.630          -1.157e+02             305.434           4.000e+01     
 141.000         270.000           -2.210e+00          -2.210e+00             293.630          -1.157e+02             305.774           4.000e+01     
 140.000         270.000           -2.025e+00          -2.025e+00             293.630          -1.157e+02             306.113           4.000e+01     
 139.000         270.000           -1.848e+00          -1.848e+00             293.630          -1.156e+02             306.450           4.000e+01     
 138.000         270.000           -1.676e+00          -1.676e+00             293.630          -1.156e+02             306.785           4.000e+01     
 137.000         270.000           -1.510e+00          -1.510e+00             293.630          -1.156e+02             307.119           4.000e+01     
 136.000         270.000           -1.350e+00          -1.350e+00             293.630          -1.156e+02             307.452           4.000e+01     
 135.000         270.000           -1.196e+00          -1.196e+00             293.630          -1.156e+02             307.783           4.000e+01     
 134.000         270.000           -1.047e+00          -1.047e+00             293.630          -1.156e+02             308.113           4.000e+01     
 133.000         270.000           -9.025e-01          -9.025e-01             293.630          -1.156e+02             308.441           4.000e+01     
 132.000         270.000           -7.633e-01          -7.633e-01             293.630          -1.156e+02             308.769           4.000e+01     
 131.000         270.000           -6.289e-01          -6.289e-01             293.630          -1.156e+02             309.096           4.000e+01     
 130.000         270.000           -4.992e-01          -4.992e-01             293.630          -1.156e+02             309.422           4.000e+01     
 129.000         270.000           -3.740e-01          -3.740e-01             293.630          -1.156e+02             309.747           4.000e+01     
 128.000         270.000           -2.531e-01          -2.531e-01             293.630          -1.156e+02             310.072           4.000e+01     
 127.000         270.000           -1.366e-01          -1.366e-01             293.630          -1.156e+02             310.396           4.000e+01     
 126.000         270.000           -2.413e-02          -2.413e-02             293.630          -1.156e+02             310.720           4.000e+01     
 125.000         270.000            8.424e-02           8.424e-02             293.630          -1.156e+02             311.043           4.000e+01     
 124.000         270.000            1.887e-01           1.887e-01             293.630          -1.156e+02             311.366           4.000e+01     
 123.000         270.000            2.892e-01           2.892e-01             293.630          -1.156e+02             311.689           4.000e+01     
 122.000         270.000            3.861e-01           3.861e-01             293.630          -1.156e+02             312.012           4.000e+01     
 121.000         270.000            4.792e-01           4.792e-01             293.630          -1.157e+02             312.335           4.000e+01     
 120.000         270.000            5.687e-01           5.687e-01             293.630          -1.157e+02             312.658           4.000e+01     
 119.000         270.000            6.547e-01           6.547e-01             293.630          -1.157e+02             312.981           4.000e+01     
 118.000         270.000            7.372e-01           7.372e-01             293.630          -1.157e+02             313.305           4.000e+01     
 117.000         270.000            8.163e-01           8.163e-01             293.630          -1.157e+02             313.629           4.000e+01     
 116.000         270.000            8.921e-01           8.921e-01             293.630          -1.158e+02             313.953           4.000e+01     
 115.000         270.000            9.646e-01           9.646e-01             293.630          -1.158e+02             314.278           4.000e+01     
 114.000         270.000            1.034e+00           1.034e+00             293.630          -1.158e+02             314.604           4.000e+01     
 113.000         270.000            1.100e+00           1.100e+00             293.630          -1.158e+02             314.930           4.000e+01     
 112.000         270.000            1.163e+00           1.163e+00             293.630          -1.159e+02             315.258           4.000e+01     
 111.000         270.000            1.223e+00           1.223e+00             293.630          -1.159e+02             315.586           4.000e+01     
 110.000         270.000            1.280e+00           1.280e+00             293.630          -1.159e+02             315.915           4.000e+01     
 109.000         270.000            1.334e+00           1.334e+00             293.630          -1.160e+02             316.246           4.000e+01     
 108.000         270.000            1.384e+00           1.384e+00             293.630          -1.160e+02             316.577           4.000e+01     
 107.000         270.000            1.432e+00           1.432e+00             293.630          -1.160e+02             316.911           4.000e+01     
 106.000         270.000            1.477e+00           1.477e+00             293.630          -1.161e+02             317.245           4.000e+01     
 105.000         270.000            1.520e+00           1.520e+00             293.630          -1.161e+02             317.582           4.000e+01     
 104.000         270.000            1.559e+00           1.559e+00             293.630          -1.162e+02             317.920           4.000e+01     
 103.000         270.000            1.595e+00           1.595e+00             293.629          -1.162e+02             318.259           4.000e+01     
 102.000         270.000            1.629e+00           1.629e+00             293.629          -1.163e+02             318.601           4.000e+01     
 101.000         270.000            1.660e+00           1.660e+00             293.629          -1.163e+02             318.945           4.000e+01     
 100.000         270.000            1.688e+00           1.688e+00             293.629          -1.164e+02             319.291           4.000e+01     
  99.000         270.000            1.714e+00           1.714e+00             293.629          -1.164e+02             319.639           4.000e+01     
  98.000         270.000            1.736e+00           1.736e+00             293.629          -1.165e+02             319.990           4.000e+01     
  97.000         270.000            1.757e+00           1.757e+00             293.629          -1.165e+02             320.343           4.000e+01     
  96.000         270.000            1.774e+00           1.774e+00             293.629          -1.166e+02             320.699           4.000e+01     
  95.000         270.000            1.788e+00           1.788e+00             293.629          -1.167e+02             321.058           4.000e+01     
  94.000         270.000            1.800e+00           1.800e+00             293.629          -1.167e+02             321.420           4.000e+01     
  93.000         270.000            1.810e+00           1.810e+00             293.629          -1.168e+02             321.785           4.000e+01     
  92.000         270.000            1.816e+00           1.816e+00             293.629          -1.169e+02             322.153           4.000e+01     
  91.000         270.000            1.820e+00           1.820e+00             293.629          -1.169e+02             322.525           4.000e+01     
  90.000         270.000            1.822e+00           1.822e+00             293.629          -1.170e+02             322.900           4.000e+01     
  89.000         270.000            1.820e+00           1.820e+00             293.629          -1.171e+02             323.280           4.000e+01     
  88.000         270.000            1.816e+00           1.816e+00             293.629          -1.172e+02             323.664           4.000e+01     
  87.000         270.000            1.810e+00           1.810e+00             293.629          -1.173e+02             324.051           4.000e+01     
  86.000         270.000            1.800e+00           1.800e+00             293.629          -1.173e+02             324.443           4.000e+01     
  85.000         270.000            1.788e+00           1.788e+00             293.629          -1.174e+02             324.839           4.000e+01     
  84.000         270.000            1.774e+00           1.774e+00             293.629          -1.175e+02             325.240           4.000e+01     
  83.000         270.000            1.757e+00           1.757e+00             293.629          -1.176e+02             325.646           4.000e+01     
  82.000         270.000            1.736e+00           1.736e+00             293.629          -1.177e+02             326.058           4.000e+01     
  81.000         270.000            1.714e+00           1.714e+00             293.629          -1.178e+02             326.475           4.000e+01     
  80.000         270.000            1.688e+00           1.688e+00             293.629          -1.179e+02             326.897           4.000e+01     
  79.000         270.000            1.660e+00           1.660e+00             293.629          -1.180e+02             327.326           4.000e+01     
  78.000         270.000            1.629e+00           1.629e+00             293.629          -1.181e+02             327.761           4.000e+01     
  77.000         270.000            1.595e+00           1.595e+00             293.629          -1.182e+02             328.203           4.000e+01     
  76.000         270.000            1.559e+00           1.559e+00             293.629          -1.183e+02             328.652           4.000e+01     
  75.000         270.000            1.520e+00           1.520e+00             293.629          -1.184e+02             329.108           4.000e+01     
  74.000         270.000            1.477e+00           1.477e+00             293.629          -1.185e+02             329.572           4.000e+01     
  73.000         270.000            1.432e+00           1.432e+00             293.629          -1.186e+02             330.043           4.000e+01     
  72.000         270.000            1.384e+00           1.384e+00             293.629          -1.187e+02             330.523           4.000e+01     
  71.000         270.000            1.334e+00           1.334e+00             293.629          -1.189e+02             331.012           4.000e+01     
  70.000         270.000            1.280e+00           1.280e+00             293.629          -1.190e+02             331.510           4.000e+01     
  69.000         270.000            1.223e+00           1.223e+00             293.629          -1.191e+02             332.018           4.000e+01     
  68.000         270.000            1.163e+00           1.163e+00             293.629          -1.192e+02             332.536           4.000e+01     
  67.000         270.000            1.100e+00           1.100e+00             293.629          -1.194e+02             333.065           4.000e+01     
  66.000         270.000            1.034e+00           1.034e+00             293.629          -1.195e+02             333.605           4.000e+01     
  65.000         270.000            9.646e-01           9.646e-01             293.629          -1.196e+02             334.157           4.000e+01     
  64.000         270.000            8.921e-01           8.921e-01             293.629          -1.198e+02             334.722           4.000e+01     
  63.000         270.000            8.163e-01           8.163e-01             293.629          -1.199e+02             335.299           4.000e+01     
  62.000         270.000            7.372e-01           7.372e-01             293.629          -1.201e+02             335.891           4.000e+01     
  61.000         270.000            6.547e-01           6.547e-01             293.629          -1.202e+02             336.497           4.000e+01     
  60.000         270.000            5.687e-01           5.687e-01             293.629          -1.204e+02             337.118           4.000e+01     
  59.000         270.000            4.792e-01           4.792e-01             293.629          -1.205e+02             337.756           4.000e+01     
  58.000         270.000            3.861e-01           3.861e-01             293.629          -1.207e+02             338.411           4.000e+01     
  57.000         270.000            2.892e-01           2.892e-01             293.629          -1.209e+02             339.084           4.000e+01     
  56.000         270.000            1.887e-01           1.887e-01             293.629          -1.210e+02             339.776           4.000e+01     
  55.000         270.000            8.424e-02           8.424e-02             293.629          -1.212e+02             340.488           4.000e+01     
  54.000         270.000           -2.414e-02          -2.414e-02             293.629          -1.214e+02             341.222           4.000e+01     
  53.000         270.000           -1.366e-01          -1.366e-01             293.629          -1.215e+02             341.979           4.000e+01     
  52.000         270.000           -2.531e-01          -2.531e-01             293.629          -1.217e+02             342.760           4.000e+01     
  51.000         270.000           -3.740e-01          -3.740e-01             293.629          -1.219e+02             343.567           4.000e+01     
  50.000         270.000           -4.992e-01          -4.992e-01             293.629          -1.221e+02             344.400           4.000e+01     
  49.000         270.000           -6.289e-01          -6.289e-01             293.629          -1.223e+02             345.263           4.000e+01     
  48.000         270.000           -7.633e-01          -7.633e-01             293.629          -1.225e+02             346.156           4.000e+01     
  47.000         270.000           -9.025e-01          -9.025e-01             293.629          -1.227e+02             347.083           4.000e+01     
  46.000         270.000           -1.047e+00          -1.047e+00             293.629          -1.229e+02             348.043           4.000e+01     
  45.000         270.000           -1.196e+00          -1.196e+00             293.629          -1.231e+02             349.041           4.000e+01     
  44.000         270.000           -1.350e+00          -1.350e+00             293.629          -1.233e+02             350.079           4.000e+01     
  43.000         270.000           -1.510e+00          -1.510e+00             293.629          -1.236e+02             351.158           4.000e+01     
  42.000         270.000           -1.676e+00          -1.676e+00             293.629          -1.238e+02             352.283           4.000e+01     
  41.000         270.000           -1.848e+00          -1.848e+00             293.629          -1.240e+02             353.455           4.000e+01     
  40.000         270.000           -2.025e+00          -2.025e+00             293.629          -1.242e+02             354.679           4.000e+01     
  39.000         270.000           -2.210e+00          -2.210e+00             293.629          -1.245e+02             355.956           4.000e+01     
  38.000         270.000           -2.400e+00          -2.400e+00             293.629          -1.247e+02             357.292           4.000e+01     
  37.000         270.000           -2.598e+00          -2.598e+00             293.629          -1.250e+02             358.690           4.000e+01     
  36.000         270.000           -2.803e+00          -2.803e+00             293.629          -1.252e+02               0.154           4.000e+01     
  35.000         270.000           -3.016e+00          -3.016e+00             293.629          -1.254e+02               1.688           4.000e+01     
  34.000         270.000           -3.237e+00          -3.237e+00             293.629          -1.257e+02               3.296           4.000e+01     
  33.000         270.000           -3.466e+00          -3.466e+00             293.629          -1.259e+02               4.984           4.000e+01     
  32.000         270.000           -3.705e+00          -3.705e+00             293.629          -1.262e+02               6.756           4.000e+01     
  31.000         270.000           -3.952e+00          -3.952e+00             293.629          -1.265e+02               8.616           4.000e+01     
  30.000         270.000           -4.210e+00          -4.210e+00             293.629          -1.267e+02              10.570           4.000e+01     
  29.000         270.000           -4.478e+00          -4.478e+00             293.629          -1.270e+02              12.622           4.000e+01     
  28.000         270.000           -4.757e+00          -4.757e+00             293.629          -1.272e+02              14.776           4.000e+01     
  27.000         270.000           -5.049e+00          -5.049e+00             293.629          -1.275e+02              17.036           4.000e+01     
  26.000         270.000           -5.353e+00          -5.353e+00             293.629          -1.277e+02              19.405           4.000e+01     
  25.000         270.000           -5.671e+00          -5.671e+00             293.629          -1.279e+02              21.885           4.000e+01     
  24.000         270.000           -6.004e+00          -6.004e+00             293.629          -1.282e+02              24.478           4.000e+01     
  23.000         270.000           -6.353e+00          -6.353e+00             293.629          -1.284e+02              27.183           4.000e+01     
  22.000         270.000           -6.719e+00          -6.719e+00             293.629          -1.286e+02              29.999           4.000e+01     
  21.000         270.000           -7.104e+00          -7.104e+00             293.629          -1.288e+02              32.920           4.000e+01     
  20.000         270.000           -7.510e+00          -7.510e+00             293.629          -1.289e+02              35.941           4.000e+01     
  19.000         270.000           -7.938e+00          -7.938e+00             293.629          -1.291e+02              39.053           4.000e+01     
  18.000         270.000           -8.392e+00          -8.392e+00             293.629          -1.292e+02              42.246           4.000e+01     
  17.000         270.000           -8.873e+00          -8.873e+00             293.629          -1.293e+02              45.505           4.000e+01     
  16.000         270.000           -9.385e+00          -9.385e+00             293.629          -1.294e+02              48.817           4.000e+01     
  15.000         270.000           -9.932e+00          -9.932e+00             293.629          -1.295e+02              52.163           4.000e+01     
  14.000         270.000           -1.052e+01          -1.052e+01             293.629          -1.295e+02              55.525           4.000e+01     
  13.000         270.000           -1.115e+01          -1.115e+01             293.629          -1.295e+02              58.885           4.000e+01     
  12.000         270.000           -1.183e+01          -1.183e+01             293.629          -1.295e+02              62.223           4.000e+01     
  11.000         270.000           -1.258e+01          -1.258e+01             293.629          -1.295e+02              65.523           4.000e+01     
  10.000         270.000           -1.340e+01          -1.340e+01             293.629          -1.294e+02              68.768           4.000e+01     
   9.000         270.000           -1.431e+01          -1.431e+01             293.629          -1.293e+02              71.943           4.000e+01     
   8.000         270.000           -1.532e+01          -1.532e+01             293.629          -1.292e+02              75.035           4.000e+01     
   7.000         270.000           -1.647e+01          -1.647e+01             293.629          -1.291e+02              78.034           4.000e+01     
   6.000         270.000           -1.781e+01          -1.781e+01             293.629          -1.290e+02              80.933           4.000e+01     
   5.000         270.000           -1.939e+01          -1.939e+01             293.629          -1.288e+02              83.727           4.000e+01     
   4.000         270.000           -2.132e+01          -2.132e+01             293.629          -1.287e+02              86.411           4.000e+01     
   3.000         270.000           -2.382e+01          -2.382e+01             293.629          -1.285e+02              88.986           4.000e+01     
   2.000         270.000           -2.734e+01          -2.734e+01             293.629          -1.283e+02              91.450           4.000e+01     
   1.000         270.000           -3.336e+01          -3.336e+01             293.629          -1.282e+02              93.805           4.000e+01     
